From IUPAC 2002 Dec edition
data of Meller and Moortgat, 2000
Absorption Cross Sections at 298 K, sigma(298 K), Averaged Over 1 nm Intervals Centered							
at the Cited Wavelength, l
Wavelengths are calibrated in air.			
ABSORPTION CROSS SECTION
	10^21 s/cm^2 !!!!						
c/nm  l/nm  t/nm  298 K  223 K  Gamma
226.0 224.7 227.3 0.0165 0.0000 0.00 
228.6 227.3 229.9 0.0181 0.0000 0.00
231.3 229.9 232.6 0.0302 0.0000 0.00
234.0 232.6 235.3 0.0315 0.0000 0.00
236.7 235.3 238.1 0.0625 0.0000 0.00
239.6 238.1 241.0 0.0705 0.0000 0.00
242.5 241.0 243.9 0.1268 0.0000 0.00
245.4 243.9 246.9 0.1390 0.0000 0.00
248.5 246.9 250.0 0.2537 0.0000 0.00
251.7 250.0 253.3 0.2699 0.2642 0.76 
254.9 253.3 256.4 0.4560 0.4427 1.78 
258.1 256.4 259.7 0.4768 0.4363 5.40 
261.5 259.7 263.2 0.7034 0.6933 1.35 
265.0 263.2 266.7 0.7379 0.7008 4.97 
268.5 266.7 270.3 1.1287 1.1074 2.86 
272.2 270.3 274.0 1.2922 1.2631 3.88 
275.9 274.0 277.8 1.8442 1.8865 -5.64 
279.8 277.8 281.7 1.8592 1.8874 -3.76 
283.7 281.7 285.7 2.5555 2.7238 -22.43 
287.8 285.7 289.9 2.3095 2.3613 -6.90 
292.0 289.9 294.1 2.6653 2.9321 -35.58 
296.3 294.1 298.5 3.2939 3.2524 5.54 
300.8 298.5 303.0 1.6046 1.5854 2.55 
305.4 303.0 307.7 4.3944 4.4061 -1.56 
310.1 307.7 312.5 1.6318 1.6737 -5.58 
315.0 312.5 317.5 4.0853 4.0230 8.30 
320.0 317.5 322.5 1.5290 1.4679 8.15 
325.0 322.5 327.5 2.7908 2.7612 3.94 
330.0 327.5 332.5 1.9889 1.9094 10.59 
335.0 332.5 337.5 0.1959 0.1831 1.71 
340.0 337.5 342.5 2.3872 2.2729 15.24 
345.0 342.5 347.5 0.7586 0.7547 0.51 
350.0 347.5 352.5 0.1947 0.2204 -3.43 
355.0 352.5 357.5 0.9604 0.0000 0.00
360.0 357.5 362.5 0.0139 0.0000 0.00
365.0 362.5 367.5 0.0100 0.0000 0.00
370.0 367.5 372.5 0.0368 0.0000 0.00
